#oghma_csv {"title":"Absorption","type":"xy","y_label":"Wavelength","data_label":"Absorption","y_units":"nm","y_mul":1000000000.0,"data_units":"m^{-1}","icon":"mat_file","time ":0.0,"Vexternal":0.0,"x_len":1,"y_len":79,"z_len":1,"cols":"yd"}*
2.066000e-07	1.454000e+08
2.156000e-07	1.463000e+08
2.254000e-07	1.472000e+08
2.362000e-07	1.484000e+08
2.480000e-07	1.490000e+08
2.610000e-07	1.497000e+08
2.755000e-07	1.505000e+08
2.917000e-07	1.512000e+08
3.000000e-07	1.512000e+08
3.100000e-07	1.516000e+08
3.179000e-07	1.518000e+08
3.263000e-07	1.521000e+08
3.351000e-07	1.523000e+08
3.444000e-07	1.522000e+08
3.500000e-07	1.522000e+08
3.542000e-07	1.526000e+08
3.647000e-07	1.526000e+08
3.757000e-07	1.525000e+08
3.875000e-07	1.527000e+08
4.000000e-07	1.527000e+08
4.133000e-07	1.526000e+08
4.275000e-07	1.529000e+08
4.428000e-07	1.527000e+08
4.500000e-07	1.528000e+08
4.592000e-07	1.527000e+08
4.769000e-07	1.528000e+08
4.959000e-07	1.528000e+08
5.000000e-07	1.528000e+08
5.061000e-07	1.527000e+08
5.166000e-07	1.528000e+08
5.276000e-07	1.529000e+08
5.391000e-07	1.527000e+08
5.500000e-07	1.529000e+08
5.510000e-07	1.528000e+08
5.636000e-07	1.527000e+08
5.767000e-07	1.525000e+08
5.904000e-07	1.522000e+08
6.000000e-07	1.521000e+08
6.048000e-07	1.519000e+08
6.199000e-07	1.516000e+08
6.358000e-07	1.512000e+08
6.500000e-07	1.506000e+08
6.526000e-07	1.506000e+08
6.702000e-07	1.502000e+08
6.888000e-07	1.498000e+08
7.000000e-07	1.492000e+08
7.085000e-07	1.488000e+08
7.293000e-07	1.477000e+08
7.500000e-07	1.444000e+08
7.514000e-07	1.442000e+08
7.749000e-07	1.395000e+08
7.999000e-07	1.327000e+08
8.250000e-07	1.266000e+08
8.266000e-07	1.263000e+08
8.500000e-07	1.215000e+08
8.551000e-07	1.207000e+08
8.750000e-07	1.175000e+08
8.856000e-07	1.165000e+08
9.000000e-07	1.159000e+08
9.184000e-07	1.155000e+08
9.250000e-07	1.153000e+08
9.500000e-07	1.175000e+08
9.537000e-07	1.179000e+08
9.919000e-07	1.202000e+08
1.000000e-06	1.204000e+08
1.033000e-06	1.216000e+08
1.078000e-06	1.236000e+08
1.127000e-06	1.249000e+08
1.181000e-06	1.256000e+08
1.200000e-06	1.257000e+08
1.240000e-06	1.267000e+08
1.305000e-06	1.271000e+08
1.378000e-06	1.277000e+08
1.459000e-06	1.283000e+08
1.500000e-06	1.290000e+08
1.550000e-06	1.297000e+08
1.653000e-06	1.300000e+08
1.771000e-06	1.299000e+08
1.907000e-06	1.305000e+08