#oghma_csv {"title":"Light intensity of 500 nm laser (Intensity 1 sun)","type":"xy","y_label":"Wavelength","data_label":"Intensity","y_units":"nm","y_mul":1000000000.0,"data_units":"m^{-1}.W.m(^-2)","icon":"spectra_file","time ":0.0,"Vexternal":0.0,"x_len":1,"y_len":200,"z_len":1,"cols":"yd"}*
1.000000e-07	7.829404e+06
1.045000e-07	8.006312e+06
1.090000e-07	8.189284e+06
1.135000e-07	8.378601e+06
1.180000e-07	8.574559e+06
1.225000e-07	8.777472e+06
1.270000e-07	8.987674e+06
1.315000e-07	9.205518e+06
1.360000e-07	9.431378e+06
1.405000e-07	9.665654e+06
1.450000e-07	9.908768e+06
1.495000e-07	1.016117e+07
1.540000e-07	1.042334e+07
1.585000e-07	1.069579e+07
1.630000e-07	1.097906e+07
1.675000e-07	1.127374e+07
1.720000e-07	1.158044e+07
1.765000e-07	1.189982e+07
1.810000e-07	1.223260e+07
1.855000e-07	1.257954e+07
1.900000e-07	1.294145e+07
1.945000e-07	1.331921e+07
1.990000e-07	1.371375e+07
2.035000e-07	1.412608e+07
2.080000e-07	1.455728e+07
2.125000e-07	1.500854e+07
2.170000e-07	1.548111e+07
2.215000e-07	1.597635e+07
2.260000e-07	1.649574e+07
2.305000e-07	1.704087e+07
2.350000e-07	1.761347e+07
2.395000e-07	1.821543e+07
2.440000e-07	1.884878e+07
2.485000e-07	1.951574e+07
2.530000e-07	2.021873e+07
2.575000e-07	2.096040e+07
2.620000e-07	2.174363e+07
2.665000e-07	2.257160e+07
2.710000e-07	2.344776e+07
2.755000e-07	2.437594e+07
2.800000e-07	2.536034e+07
2.845000e-07	2.640559e+07
2.890000e-07	2.751681e+07
2.935000e-07	2.869966e+07
2.980000e-07	2.996045e+07
3.025000e-07	3.130616e+07
3.070000e-07	3.274461e+07
3.115000e-07	3.428450e+07
3.160000e-07	3.593561e+07
3.205000e-07	3.770890e+07
3.250000e-07	3.961673e+07
3.295000e-07	4.167307e+07
3.340000e-07	4.389373e+07
3.385000e-07	4.629670e+07
3.430000e-07	4.890247e+07
3.475000e-07	5.173454e+07
3.520000e-07	5.481986e+07
3.565000e-07	5.818956e+07
3.610000e-07	6.187968e+07
3.655000e-07	6.593214e+07
3.700000e-07	7.039597e+07
3.745000e-07	7.532878e+07
3.790000e-07	8.079860e+07
3.835000e-07	8.688627e+07
3.880000e-07	9.368842e+07
3.925000e-07	1.013213e+08
3.970000e-07	1.099259e+08
4.015000e-07	1.196743e+08
4.060000e-07	1.307784e+08
4.105000e-07	1.435015e+08
4.150000e-07	1.581742e+08
4.195000e-07	1.752157e+08
4.240000e-07	1.951640e+08
4.285000e-07	2.187193e+08
4.330000e-07	2.468053e+08
4.375000e-07	2.806609e+08
4.420000e-07	3.219791e+08
4.465000e-07	3.731206e+08
4.510000e-07	4.374573e+08
4.555000e-07	5.199371e+08
4.600000e-07	6.280560e+08
4.645000e-07	7.736031e+08
4.690000e-07	9.759685e+08
4.735000e-07	1.268831e+09
4.780000e-07	1.714786e+09
4.825000e-07	2.440617e+09
4.870000e-07	3.733647e+09
4.915000e-07	6.350430e+09
4.960000e-07	1.271658e+10
5.005000e-07	3.190993e+10
5.050000e-07	6.421873e+10
5.095000e-07	3.190993e+10
5.140000e-07	1.271658e+10
5.185000e-07	6.350430e+09
5.230000e-07	3.733647e+09
5.275000e-07	2.440617e+09
5.320000e-07	1.714786e+09
5.365000e-07	1.268831e+09
5.410000e-07	9.759685e+08
5.455000e-07	7.736031e+08
5.500000e-07	6.280560e+08
5.545000e-07	5.199371e+08
5.590000e-07	4.374573e+08
5.635000e-07	3.731206e+08
5.680000e-07	3.219791e+08
5.725000e-07	2.806609e+08
5.770000e-07	2.468053e+08
5.815000e-07	2.187193e+08
5.860000e-07	1.951640e+08
5.905000e-07	1.752157e+08
5.950000e-07	1.581742e+08
5.995000e-07	1.435015e+08
6.040000e-07	1.307784e+08
6.085000e-07	1.196743e+08
6.130000e-07	1.099259e+08
6.175000e-07	1.013213e+08
6.220000e-07	9.368842e+07
6.265000e-07	8.688627e+07
6.310000e-07	8.079860e+07
6.355000e-07	7.532878e+07
6.400000e-07	7.039597e+07
6.445000e-07	6.593214e+07
6.490000e-07	6.187968e+07
6.535000e-07	5.818956e+07
6.580000e-07	5.481986e+07
6.625000e-07	5.173454e+07
6.670000e-07	4.890247e+07
6.715000e-07	4.629670e+07
6.760000e-07	4.389373e+07
6.805000e-07	4.167307e+07
6.850000e-07	3.961673e+07
6.895000e-07	3.770890e+07
6.940000e-07	3.593561e+07
6.985000e-07	3.428450e+07
7.030000e-07	3.274461e+07
7.075000e-07	3.130616e+07
7.120000e-07	2.996045e+07
7.165000e-07	2.869966e+07
7.210000e-07	2.751681e+07
7.255000e-07	2.640559e+07
7.300000e-07	2.536034e+07
7.345000e-07	2.437594e+07
7.390000e-07	2.344776e+07
7.435000e-07	2.257160e+07
7.480000e-07	2.174363e+07
7.525000e-07	2.096040e+07
7.570000e-07	2.021873e+07
7.615000e-07	1.951574e+07
7.660000e-07	1.884878e+07
7.705000e-07	1.821543e+07
7.750000e-07	1.761347e+07
7.795000e-07	1.704087e+07
7.840000e-07	1.649574e+07
7.885000e-07	1.597635e+07
7.930000e-07	1.548111e+07
7.975000e-07	1.500854e+07
8.020000e-07	1.455728e+07
8.065000e-07	1.412608e+07
8.110000e-07	1.371375e+07
8.155000e-07	1.331921e+07
8.200000e-07	1.294145e+07
8.245000e-07	1.257954e+07
8.290000e-07	1.223260e+07
8.335000e-07	1.189982e+07
8.380000e-07	1.158044e+07
8.425000e-07	1.127374e+07
8.470000e-07	1.097906e+07
8.515000e-07	1.069579e+07
8.560000e-07	1.042334e+07
8.605000e-07	1.016117e+07
8.650000e-07	9.908768e+06
8.695000e-07	9.665654e+06
8.740000e-07	9.431378e+06
8.785000e-07	9.205518e+06
8.830000e-07	8.987674e+06
8.875000e-07	8.777472e+06
8.920000e-07	8.574559e+06
8.965000e-07	8.378601e+06
9.010000e-07	8.189284e+06
9.055000e-07	8.006312e+06
9.100000e-07	7.829404e+06
9.145000e-07	7.658295e+06
9.190000e-07	7.492734e+06
9.235000e-07	7.332485e+06
9.280000e-07	7.177322e+06
9.325000e-07	7.027032e+06
9.370000e-07	6.881414e+06
9.415000e-07	6.740275e+06
9.460000e-07	6.603434e+06
9.505000e-07	6.470719e+06
9.550000e-07	6.341964e+06
9.595000e-07	6.217014e+06
9.640000e-07	6.095721e+06
9.685000e-07	5.977943e+06
9.730000e-07	5.863546e+06
9.775000e-07	5.752401e+06
9.820000e-07	5.644387e+06
9.865000e-07	5.539386e+06
9.910000e-07	5.437289e+06
9.955000e-07	5.337988e+06